!      i  Frequency,cm-1  Ampl(FT_ACF)(singlesided)
       1          0.00      0.000131
       2          2.08      0.025916
       3          4.17      0.039530
       4          6.25      0.010242
       5          8.33      0.010576
       6         10.42      0.005274
       7         12.50      0.013552
       8         14.58      0.004733
       9         16.67      0.013603
      10         18.75      0.003843
      11         20.83      0.012007
      12         22.92      0.004963
      13         25.00      0.003842
      14         27.08      0.010836
      15         29.17      0.018419
      16         31.25      0.007125
      17         33.33      0.004954
      18         35.42      0.007498
      19         37.50      0.001229
      20         39.58      0.000695
      21         41.67      0.001450
      22         43.75      0.013537
      23         45.83      0.001178
      24         47.92      0.002003
      25         50.00      0.021992
      26         52.08      0.003458
      27         54.17      0.002844
      28         56.25      0.018624
      29         58.33      0.006546
      30         60.42      0.005444
      31         62.50      0.010532
      32         64.58      0.017974
      33         66.67      0.005308
      34         68.75      0.017187
      35         70.83      0.014924
      36         72.92      0.020683
      37         75.00      0.009836
      38         77.08      0.023720
      39         79.17      0.012057
      40         81.25      0.009222
      41         83.33      0.004807
      42         85.42      0.004536
      43         87.50      0.005151
      44         89.58      0.004141
      45         91.67      0.004231
      46         93.75      0.003099
      47         95.83      0.002741
      48         97.92      0.010820
      49        100.00      0.004664
      50        102.08      0.003919
      51        104.17      0.004951
      52        106.25      0.011024
      53        108.33      0.004791
      54        110.42      0.006091
      55        112.50      0.007425
      56        114.58      0.003449
      57        116.67      0.007588
      58        118.75      0.006378
      59        120.83      0.002270
      60        122.92      0.003888
      61        125.00      0.005676
      62        127.08      0.000734
      63        129.17      0.005348
      64        131.25      0.002329
      65        133.33      0.006268
      66        135.42      0.002924
      67        137.50      0.014265
      68        139.58      0.002214
      69        141.67      0.002515
      70        143.75      0.006454
      71        145.83      0.006271
      72        147.92      0.002980
      73        150.00      0.005728
      74        152.08      0.007839
      75        154.17      0.006948
      76        156.25      0.006862
      77        158.33      0.004175
      78        160.42      0.007025
      79        162.50      0.013568
      80        164.58      0.007080
      81        166.67      0.004711
      82        168.75      0.003139
      83        170.83      0.002985
      84        172.92      0.008239
      85        175.00      0.008678
      86        177.08      0.005639
      87        179.17      0.002188
      88        181.25      0.003385
      89        183.33      0.009640
      90        185.42      0.012167
      91        187.50      0.008388
      92        189.58      0.005014
      93        191.67      0.008141
      94        193.75      0.004181
      95        195.83      0.004085
      96        197.92      0.004418
      97        200.00      0.007862
      98        202.08      0.002640
      99        204.17      0.003706
     100        206.25      0.007314
     101        208.33      0.011136
     102        210.42      0.004631
     103        212.50      0.005337
     104        214.58      0.003701
     105        216.67      0.007839
     106        218.75      0.005386
     107        220.83      0.006026
     108        222.92      0.004710
     109        225.00      0.004153
     110        227.08      0.004936
     111        229.17      0.004694
     112        231.25      0.005727
     113        233.33      0.003209
     114        235.42      0.004961
     115        237.50      0.004253
     116        239.58      0.004160
     117        241.67      0.003594
     118        243.75      0.004448
     119        245.83      0.003960
     120        247.92      0.003492
     121        250.00      0.003541
     122        252.08      0.003717
     123        254.17      0.002712
     124        256.25      0.004424
     125        258.33      0.003814
     126        260.42      0.003640
     127        262.50      0.003806
     128        264.58      0.003707
     129        266.67      0.003139
     130        268.75      0.003133
     131        270.83      0.003705
     132        272.92      0.003227
     133        275.00      0.003289
     134        277.08      0.003437
     135        279.17      0.003234
     136        281.25      0.002436
     137        283.33      0.003250
     138        285.42      0.003249
     139        287.50      0.003238
     140        289.58      0.003256
     141        291.67      0.003210
     142        293.75      0.003088
     143        295.83      0.002877
     144        297.92      0.002746
     145        300.00      0.002867
     146        302.08      0.002725
     147        304.17      0.002814
     148        306.25      0.002556
     149        308.33      0.002489
     150        310.42      0.003301
     151        312.50      0.002793
     152        314.58      0.002464
     153        316.67      0.002733
     154        318.75      0.002808
     155        320.83      0.002769
     156        322.92      0.002570
     157        325.00      0.002564
     158        327.08      0.002631
     159        329.17      0.002636
     160        331.25      0.002421
     161        333.33      0.002410
     162        335.42      0.002513
     163        337.50      0.002489
     164        339.58      0.002358
     165        341.67      0.002352
     166        343.75      0.002343
     167        345.83      0.002319
     168        347.92      0.002218
     169        350.00      0.002200
     170        352.08      0.002060
     171        354.17      0.002411
     172        356.25      0.002321
     173        358.33      0.002207
     174        360.42      0.002192
     175        362.50      0.002278
     176        364.58      0.002179
     177        366.67      0.002170
     178        368.75      0.002152
     179        370.83      0.002106
     180        372.92      0.002099
     181        375.00      0.002043
     182        377.08      0.002060
     183        379.17      0.002063
     184        381.25      0.002051
     185        383.33      0.002053
     186        385.42      0.002012
     187        387.50      0.001997
     188        389.58      0.001987
     189        391.67      0.001951
     190        393.75      0.001936
     191        395.83      0.001934
     192        397.92      0.001939
     193        400.00      0.001896
     194        402.08      0.001908
     195        404.17      0.001890
     196        406.25      0.001884
     197        408.33      0.001872
     198        410.42      0.001845
     199        412.50      0.001863
     200        414.58      0.001841
     201        416.67      0.001818
     202        418.75      0.001797
     203        420.83      0.001792
     204        422.92      0.001767
     205        425.00      0.001770
     206        427.08      0.001752
     207        429.17      0.001738
     208        431.25      0.001763
     209        433.33      0.001736
     210        435.42      0.001713
     211        437.50      0.001699
     212        439.58      0.001688
     213        441.67      0.001670
     214        443.75      0.001669
     215        445.83      0.001664
     216        447.92      0.001661
     217        450.00      0.001651
     218        452.08      0.001633
     219        454.17      0.001634
     220        456.25      0.001629
     221        458.33      0.001616
     222        460.42      0.001601
     223        462.50      0.001592
     224        464.58      0.001585
     225        466.67      0.001577
     226        468.75      0.001566
     227        470.83      0.001554
     228        472.92      0.001552
     229        475.00      0.001543
     230        477.08      0.001533
     231        479.17      0.001525
     232        481.25      0.001520
     233        483.33      0.001510
     234        485.42      0.001503
     235        487.50      0.001492
     236        489.58      0.001488
     237        491.67      0.001483
     238        493.75      0.001474
     239        495.83      0.001463
     240        497.92      0.001456
     241        500.00      0.001450
     242        502.08      0.001448
     243        504.17      0.001438
     244        506.25      0.001433
     245        508.33      0.001430
     246        510.42      0.001420
     247        512.50      0.001411
     248        514.58      0.001402
     249        516.67      0.001398
     250        518.75      0.001391
     251        520.83      0.001385
     252        522.92      0.001381
     253        525.00      0.001376
     254        527.08      0.001368
     255        529.17      0.001361
     256        531.25      0.001353
     257        533.33      0.001348
     258        535.42      0.001343
     259        537.50      0.001336
     260        539.58      0.001331
     261        541.67      0.001326
     262        543.75      0.001320
     263        545.83      0.001314
     264        547.92      0.001308
     265        550.00      0.001306
     266        552.08      0.001300
     267        554.17      0.001294
     268        556.25      0.001287
     269        558.33      0.001282
     270        560.42      0.001277
     271        562.50      0.001271
     272        564.58      0.001264
     273        566.67      0.001261
     274        568.75      0.001256
     275        570.83      0.001250
     276        572.92      0.001245
     277        575.00      0.001240
     278        577.08      0.001235
     279        579.17      0.001231
     280        581.25      0.001225
     281        583.33      0.001221
     282        585.42      0.001217
     283        587.50      0.001212
     284        589.58      0.001206
     285        591.67      0.001202
     286        593.75      0.001198
     287        595.83      0.001194
     288        597.92      0.001189
     289        600.00      0.001185
     290        602.08      0.001180
     291        604.17      0.001176
     292        606.25      0.001171
     293        608.33      0.001166
     294        610.42      0.001162
     295        612.50      0.001158
     296        614.58      0.001153
     297        616.67      0.001149
     298        618.75      0.001145
     299        620.83      0.001141
     300        622.92      0.001137
     301        625.00      0.001133
     302        627.08      0.001129
     303        629.17      0.001125
     304        631.25      0.001121
     305        633.33      0.001117
     306        635.42      0.001113
     307        637.50      0.001109
     308        639.58      0.001105
     309        641.67      0.001101
     310        643.75      0.001098
     311        645.83      0.001094
     312        647.92      0.001090
     313        650.00      0.001087
     314        652.08      0.001083
     315        654.17      0.001079
     316        656.25      0.001075
     317        658.33      0.001071
     318        660.42      0.001068
     319        662.50      0.001064
     320        664.58      0.001061
     321        666.67      0.001057
     322        668.75      0.001054
     323        670.83      0.001051
     324        672.92      0.001047
     325        675.00      0.001044
     326        677.08      0.001040
     327        679.17      0.001037
     328        681.25      0.001034
     329        683.33      0.001030
     330        685.42      0.001027
     331        687.50      0.001024
     332        689.58      0.001021
     333        691.67      0.001017
     334        693.75      0.001014
     335        695.83      0.001011
     336        697.92      0.001008
     337        700.00      0.001004
     338        702.08      0.001001
     339        704.17      0.000998
     340        706.25      0.000995
     341        708.33      0.000992
     342        710.42      0.000989
     343        712.50      0.000986
     344        714.58      0.000983
     345        716.67      0.000980
     346        718.75      0.000977
     347        720.83      0.000974
     348        722.92      0.000971
     349        725.00      0.000968
     350        727.08      0.000965
     351        729.17      0.000962
     352        731.25      0.000960
     353        733.33      0.000957
     354        735.42      0.000954
     355        737.50      0.000951
     356        739.58      0.000948
     357        741.67      0.000946
     358        743.75      0.000943
     359        745.83      0.000940
     360        747.92      0.000937
     361        750.00      0.000935
     362        752.08      0.000932
     363        754.17      0.000929
     364        756.25      0.000927
     365        758.33      0.000924
     366        760.42      0.000921
     367        762.50      0.000919
     368        764.58      0.000916
     369        766.67      0.000914
     370        768.75      0.000911
     371        770.83      0.000908
     372        772.92      0.000906
     373        775.00      0.000903
     374        777.08      0.000901
     375        779.17      0.000898
     376        781.25      0.000896
     377        783.33      0.000894
     378        785.42      0.000891
     379        787.50      0.000889
     380        789.58      0.000886
     381        791.67      0.000884
     382        793.75      0.000882
     383        795.83      0.000879
     384        797.92      0.000877
     385        800.00      0.000874
     386        802.08      0.000872
     387        804.17      0.000870
     388        806.25      0.000867
     389        808.33      0.000865
     390        810.42      0.000863
     391        812.50      0.000861
     392        814.58      0.000858
     393        816.67      0.000856
     394        818.75      0.000854
     395        820.83      0.000852
     396        822.92      0.000850
     397        825.00      0.000847
     398        827.08      0.000845
     399        829.17      0.000843
     400        831.25      0.000841
     401        833.33      0.000839
     402        835.42      0.000837
     403        837.50      0.000834
     404        839.58      0.000832
     405        841.67      0.000830
     406        843.75      0.000828
     407        845.83      0.000826
     408        847.92      0.000824
     409        850.00      0.000822
     410        852.08      0.000820
     411        854.17      0.000818
     412        856.25      0.000816
     413        858.33      0.000814
     414        860.42      0.000812
     415        862.50      0.000810
     416        864.58      0.000808
     417        866.67      0.000806
     418        868.75      0.000804
     419        870.83      0.000802
     420        872.92      0.000800
     421        875.00      0.000798
     422        877.08      0.000796
     423        879.17      0.000794
     424        881.25      0.000792
     425        883.33      0.000791
     426        885.42      0.000789
     427        887.50      0.000787
     428        889.58      0.000785
     429        891.67      0.000783
     430        893.75      0.000781
     431        895.83      0.000779
     432        897.92      0.000778
     433        900.00      0.000776
     434        902.08      0.000774
     435        904.17      0.000772
     436        906.25      0.000770
     437        908.33      0.000769
     438        910.42      0.000767
     439        912.50      0.000765
     440        914.58      0.000763
     441        916.67      0.000762
     442        918.75      0.000760
     443        920.83      0.000758
     444        922.92      0.000756
     445        925.00      0.000755
     446        927.08      0.000753
     447        929.17      0.000751
     448        931.25      0.000750
     449        933.33      0.000748
     450        935.42      0.000746
     451        937.50      0.000745
     452        939.58      0.000743
     453        941.67      0.000741
     454        943.75      0.000740
     455        945.83      0.000738
     456        947.92      0.000736
     457        950.00      0.000735
     458        952.08      0.000733
     459        954.17      0.000732
     460        956.25      0.000730
     461        958.33      0.000728
     462        960.42      0.000727
     463        962.50      0.000725
     464        964.58      0.000724
     465        966.67      0.000722
     466        968.75      0.000721
     467        970.83      0.000719
     468        972.92      0.000718
     469        975.00      0.000716
     470        977.08      0.000714
     471        979.17      0.000713
     472        981.25      0.000711
     473        983.33      0.000710
     474        985.42      0.000708
     475        987.50      0.000707
     476        989.58      0.000706
     477        991.67      0.000704
     478        993.75      0.000703
     479        995.83      0.000701
     480        997.92      0.000700
     481       1000.00      0.000698
     482       1002.08      0.000697
     483       1004.17      0.000695
     484       1006.25      0.000694
     485       1008.33      0.000693
     486       1010.42      0.000691
     487       1012.50      0.000690
     488       1014.58      0.000688
     489       1016.67      0.000687
     490       1018.75      0.000686
     491       1020.83      0.000684
     492       1022.92      0.000683
     493       1025.00      0.000681
     494       1027.08      0.000680
     495       1029.17      0.000679
     496       1031.25      0.000677
     497       1033.33      0.000676
     498       1035.42      0.000675
     499       1037.50      0.000673
     500       1039.58      0.000672
     501       1041.67      0.000671
     502       1043.75      0.000669
     503       1045.83      0.000668
     504       1047.92      0.000667
     505       1050.00      0.000665
     506       1052.08      0.000664
     507       1054.17      0.000663
     508       1056.25      0.000662
     509       1058.33      0.000660
     510       1060.42      0.000659
     511       1062.50      0.000658
     512       1064.58      0.000656
     513       1066.67      0.000655
     514       1068.75      0.000654
     515       1070.83      0.000653
     516       1072.92      0.000651
     517       1075.00      0.000650
     518       1077.08      0.000649
     519       1079.17      0.000648
     520       1081.25      0.000647
     521       1083.33      0.000645
     522       1085.42      0.000644
     523       1087.50      0.000643
     524       1089.58      0.000642
